# Marine heatwave statistics for individual detected events at Tsitsikamma_West
Event number, Start year, Start month, Start day, Peak year, Peak month, Peak day, End year, End month, End day, Duration [days], Maximum intensity [deg C], Mean intensity [deg C], Cumulative intensity [deg C x days], Intensity variability [deg C], Rate of onset [deg C / days], Rate of decline [deg C / days], Maximum intensity (rel. thresh.) [deg C], Mean intensity (rel. thresh.) [deg C], Cumulative intensity (rel. thresh.) [deg C x days], Intensity variability (rel. thresh.) [deg C], Maximum intensity (absolute) [deg C], Mean intensity (absolute) [deg C], Cumulative intensity (absolute) [deg C x days], Intensity variability (absolute) [deg C], Maximum intensity (normalized) [unitless], Mean intensity (normalized) [unitless]
1, 1992, 5, 12, 1992, 5, 31, 1992, 7, 1, 51, 5.503, 3.376, 172.2, 0.792, 0.1412, 0.004585, 3.331, 1.467, 74.81, 0.6729, 22.0, 19.85, 1.012e+03, 0.8649, 2.533, 1.8
2, 1992, 7, 14, 1992, 7, 26, 1992, 7, 29, 16, 2.992, 2.227, 35.63, 0.4953, 0.1295, 0.002296, 1.591, 0.8408, 13.45, 0.4931, 19.0, 18.28, 292.5, 0.499, 2.135, 1.606
3, 1992, 8, 3, 1992, 8, 8, 1992, 8, 8, 6, 3.074, 2.562, 15.37, 0.4979, 0.1865, 0.001305, 1.822, 1.28, 7.683, 0.4919, 19.0, 18.5, 111.0, 0.5, 2.455, 1.998
4, 1993, 1, 2, 1993, 1, 7, 1993, 1, 9, 8, 3.889, 3.282, 26.26, 0.4581, 0.2624, 0.0005879, 0.9829, 0.3991, 3.193, 0.4131, 23.0, 22.38, 179.0, 0.4841, 1.338, 1.136
5, 1993, 1, 17, 1993, 1, 24, 1993, 1, 26, 10, 4.58, 3.823, 38.23, 0.3714, 0.183, 0.001648, 1.499, 0.779, 7.79, 0.3522, 24.0, 23.2, 232.0, 0.4, 1.486, 1.255
6, 1993, 2, 25, 1993, 3, 3, 1993, 3, 4, 8, 4.933, 4.138, 33.1, 0.4931, 0.2822, 0.001516, 1.304, 0.5099, 4.079, 0.4872, 23.0, 22.31, 178.5, 0.4285, 1.359, 1.14
7, 1994, 11, 11, 1994, 11, 13, 1994, 11, 17, 7, 2.679, 2.102, 14.71, 0.2726, 0.3485, 0.000585, 0.89, 0.3148, 2.203, 0.2695, 20.5, 19.99, 139.9, 0.2356, 1.497, 1.176
8, 1998, 7, 7, 1998, 7, 18, 1998, 7, 21, 15, 2.407, 1.666, 25.0, 0.3456, 0.0836, 0.0003633, 1.026, 0.2861, 4.291, 0.3463, 18.5, 17.79, 266.9, 0.3473, 1.743, 1.207
9, 1998, 7, 26, 1998, 7, 29, 1998, 7, 31, 6, 2.523, 1.9, 11.4, 0.3654, 0.3677, 0.0003853, 1.151, 0.5219, 3.131, 0.3653, 18.5, 17.88, 107.3, 0.3625, 1.838, 1.379
10, 1999, 1, 7, 1999, 1, 7, 1999, 1, 17, 11, 4.889, 4.234, 46.57, 0.7341, 2.985, 0.0006244, 1.983, 1.265, 13.92, 0.7388, 24.0, 23.44, 257.8, 0.6826, 1.682, 1.427
11, 1999, 2, 9, 1999, 2, 9, 1999, 2, 13, 5, 4.941, 3.99, 19.95, 0.7209, 2.728, 0.0008979, 1.755, 0.7641, 3.821, 0.7431, 24.2, 23.2, 116.0, 0.7457, 1.551, 1.239
12, 1999, 3, 20, 1999, 3, 21, 1999, 3, 24, 5, 5.692, 5.022, 25.11, 0.3958, 1.037, 0.0006724, 1.911, 1.249, 6.247, 0.3947, 23.0, 22.3, 111.5, 0.4, 1.506, 1.331
13, 2000, 9, 11, 2000, 9, 30, 2000, 10, 7, 27, 2.979, 2.064, 55.74, 0.4306, 0.1163, 0.0003531, 1.372, 0.5708, 15.41, 0.413, 19.3, 18.33, 494.9, 0.4512, 1.854, 1.388
14, 2002, 3, 23, 2002, 4, 14, 2002, 4, 14, 23, 6.823, 5.046, 116.1, 0.8782, 0.1459, 0.001156, 3.577, 1.418, 32.62, 0.8835, 23.4, 21.9, 503.7, 0.9137, 2.102, 1.393
15, 2002, 8, 9, 2002, 8, 13, 2002, 8, 13, 5, 1.601, 1.431, 7.156, 0.139, 0.1389, 6.76e-05, 0.3819, 0.203, 1.015, 0.1427, 17.5, 17.34, 86.7, 0.1356, 1.313, 1.166
16, 2003, 2, 4, 2003, 2, 7, 2003, 2, 8, 5, 5.188, 4.443, 22.21, 0.472, 0.4669, 0.0003608, 1.991, 1.259, 6.295, 0.4638, 24.5, 23.78, 118.9, 0.4445, 1.623, 1.395
17, 2003, 3, 15, 2003, 3, 19, 2003, 3, 19, 5, 4.917, 4.337, 21.68, 0.4001, 0.2312, 0.0001898, 1.137, 0.5895, 2.948, 0.3888, 22.3, 21.82, 109.1, 0.3655, 1.301, 1.157
18, 2003, 3, 30, 2003, 4, 4, 2003, 4, 4, 6, 4.831, 4.364, 26.18, 0.3188, 0.1643, 0.0002209, 1.145, 0.6325, 3.795, 0.3388, 21.6, 21.25, 127.5, 0.2754, 1.311, 1.17
19, 2003, 5, 22, 2003, 5, 22, 2003, 5, 26, 5, 3.081, 2.75, 13.75, 0.2829, 1.115, 0.0002202, 0.7435, 0.4419, 2.21, 0.2704, 19.7, 19.34, 96.7, 0.2939, 1.318, 1.191
20, 2004, 8, 28, 2004, 9, 1, 2004, 9, 3, 7, 2.727, 2.388, 16.72, 0.3728, 0.2501, 0.0002842, 1.535, 1.209, 8.46, 0.3808, 18.7, 18.36, 128.5, 0.3659, 2.289, 2.027
21, 2004, 10, 25, 2004, 10, 27, 2004, 10, 29, 5, 2.834, 2.452, 12.26, 0.324, 0.4937, 0.0001597, 1.037, 0.6478, 3.239, 0.3234, 19.5, 19.12, 95.6, 0.3544, 1.577, 1.359
22, 2004, 11, 14, 2004, 11, 15, 2004, 11, 22, 9, 4.046, 3.297, 29.67, 0.578, 1.4, 0.0003618, 2.267, 1.487, 13.38, 0.58, 22.0, 21.42, 192.8, 0.6196, 2.274, 1.822
23, 2004, 12, 13, 2004, 12, 13, 2004, 12, 19, 7, 3.806, 3.207, 22.45, 0.468, 1.997, 0.0001379, 1.348, 0.6347, 4.443, 0.5018, 22.6, 22.03, 154.2, 0.4651, 1.548, 1.25
24, 2005, 12, 25, 2005, 12, 28, 2005, 12, 30, 6, 4.986, 4.006, 24.04, 0.5451, 0.5903, 0.0004558, 2.265, 1.279, 7.676, 0.5491, 24.0, 23.01, 138.1, 0.5526, 1.833, 1.469
25, 2006, 10, 24, 2006, 10, 30, 2006, 10, 30, 7, 2.669, 2.271, 15.9, 0.2493, 0.1042, 8.055e-05, 0.8502, 0.4632, 3.242, 0.2456, 19.5, 18.94, 132.6, 0.3379, 1.467, 1.256
