# Annual average marine heatwave statistics at Sodwana
# A value of nan indicates mising data. This should correspond to a year with no MHW events (count = 0)
Year, MHW event count [number], Duration [days], Maximum intensity [deg C], Mean intensity [deg C], Cumulative intensity [deg C x days], Total MHW days [days], Total cumulative intensity [deg C x days], Intensity variability [deg C], Rate of onset [deg C / days], Rate of decline [deg C / days], Maximum intensity (rel. thresh.) [deg C], Mean intensity (rel. thresh.) [deg C], Cumulative intensity (rel. thresh.) [deg C x days], Intensity variability (rel. thresh.) [deg C], Maximum intensity (absolute) [deg C], Mean intensity (absolute) [deg C], Cumulative intensity (absolute) [deg C x days], Intensity variability (absolute) [deg C], Maximum intensity (normalized) [unitless], Mean intensity (normalized) [unitless], Mean temperature [deg C], Max temperature [deg C], Min temperature [deg C]
1982, 0, nan, nan, nan, nan, 0.0, 0.0, nan, nan, nan, nan, nan, nan, nan, nan, nan, nan, nan, nan, nan, 24.34, 27.76, 21.95
1983, 5, 6.6, 1.294, 1.133, 7.487, 33.0, 37.43, 0.1318, 0.4116, 0.0009555, 0.4698, 0.3062, 2.166, 0.134, 25.83, 25.65, 167.0, 0.1479, 1.594, 1.385, 24.76, 28.33, 21.1
1984, 0, nan, nan, nan, nan, 0.0, 0.0, nan, nan, nan, nan, nan, nan, nan, nan, nan, nan, nan, nan, nan, 24.17, 27.08, 20.98
1985, 4, 7.5, 1.545, 1.268, 9.538, 30.0, 38.15, 0.1933, 0.4333, 0.0006157, 0.6809, 0.3987, 3.183, 0.197, 25.92, 25.67, 196.8, 0.1727, 1.798, 1.466, 24.72, 28.69, 21.53
1986, 0, nan, nan, nan, nan, 0.0, 0.0, nan, nan, nan, nan, nan, nan, nan, nan, nan, nan, nan, nan, nan, 24.43, 27.69, 20.83
1987, 3, 7.667, 1.26, 1.12, 8.569, 23.0, 25.71, 0.09771, 0.2194, 0.0002522, 0.3988, 0.2634, 2.002, 0.09713, 26.64, 26.47, 202.6, 0.1563, 1.475, 1.318, 24.76, 28.22, 21.1
1988, 3, 8.333, 1.541, 1.199, 10.06, 25.0, 30.17, 0.2084, 0.2172, 0.0002656, 0.765, 0.4224, 3.657, 0.2083, 25.73, 25.41, 208.4, 0.194, 2.012, 1.552, 24.68, 28.52, 21.53
1989, 1, 7.0, 1.596, 1.248, 8.733, 7.0, 8.733, 0.2434, 0.1253, 0.0002771, 0.7497, 0.4116, 2.881, 0.2411, 24.02, 23.65, 165.6, 0.2452, 1.885, 1.492, 24.6, 27.77, 21.9
1990, 0, nan, nan, nan, nan, 0.0, 0.0, nan, nan, nan, nan, nan, nan, nan, nan, nan, nan, nan, nan, nan, 24.54, 28.37, 21.2
1991, 5, 9.2, 1.561, 1.24, 11.84, 46.0, 59.19, 0.1924, 0.1676, 0.0002467, 0.7257, 0.4048, 4.041, 0.1923, 26.54, 26.22, 241.9, 0.2117, 1.857, 1.478, 24.81, 29.47, 21.6
1992, 3, 8.333, 1.45, 1.178, 9.626, 25.0, 28.88, 0.1807, 0.1991, 0.000144, 0.5931, 0.3282, 2.686, 0.1771, 27.67, 27.4, 231.7, 0.1942, 1.693, 1.387, 24.78, 28.8, 21.23
1993, 0, nan, nan, nan, nan, 0.0, 0.0, nan, nan, nan, nan, nan, nan, nan, nan, nan, nan, nan, nan, nan, 24.53, 27.73, 21.37
1994, 0, nan, nan, nan, nan, 0.0, 0.0, nan, nan, nan, nan, nan, nan, nan, nan, nan, nan, nan, nan, nan, 24.16, 28.07, 20.82
1995, 0, nan, nan, nan, nan, 0.0, 0.0, nan, nan, nan, nan, nan, nan, nan, nan, nan, nan, nan, nan, nan, 24.37, 27.66, 21.16
1996, 1, 6.0, 1.231, 1.16, 6.958, 6.0, 6.958, 0.07486, 0.2094, 3.653e-05, 0.2842, 0.2106, 1.263, 0.07568, 25.77, 25.75, 154.5, 0.1048, 1.3, 1.222, 24.4, 27.73, 20.6
1997, 2, 8.5, 1.522, 1.237, 10.56, 17.0, 21.11, 0.202, 0.2999, 9.973e-05, 0.5925, 0.3098, 2.689, 0.2011, 24.95, 24.73, 209.9, 0.1835, 1.639, 1.337, 24.33, 27.66, 21.27
1998, 5, 7.0, 1.305, 1.072, 7.701, 35.0, 38.5, 0.1482, 0.1808, 8.688e-05, 0.5006, 0.2675, 1.929, 0.1489, 24.99, 24.73, 174.7, 0.1706, 1.611, 1.33, 24.97, 28.5, 21.85
1999, 3, 11.33, 1.473, 1.208, 14.44, 34.0, 43.31, 0.1991, 0.1985, 9.31e-05, 0.5829, 0.3271, 3.926, 0.2002, 28.01, 27.79, 313.1, 0.2449, 1.66, 1.374, 24.89, 28.32, 21.21
2000, 4, 9.75, 1.392, 1.104, 10.7, 39.0, 42.79, 0.1598, 0.4963, 8.663e-05, 0.6025, 0.3086, 2.931, 0.1629, 27.36, 27.01, 258.6, 0.191, 1.761, 1.388, 25.04, 28.72, 21.63
2001, 2, 8.5, 1.212, 1.033, 8.631, 17.0, 17.26, 0.137, 0.3912, 6.007e-05, 0.392, 0.2075, 1.657, 0.1393, 27.63, 27.41, 233.5, 0.1723, 1.475, 1.249, 24.86, 28.26, 21.52
2002, 3, 10.67, 1.517, 1.189, 12.74, 32.0, 38.23, 0.2007, 0.1926, 9.08e-05, 0.7339, 0.4083, 4.307, 0.2009, 24.22, 23.9, 254.1, 0.2099, 1.933, 1.531, 24.81, 27.91, 21.81
2003, 0, nan, nan, nan, nan, 0.0, 0.0, nan, nan, nan, nan, nan, nan, nan, nan, nan, nan, nan, nan, nan, 24.65, 28.94, 21.44
2004, 2, 9.5, 1.899, 1.465, 13.74, 19.0, 27.48, 0.3315, 0.5283, 9.484e-05, 0.9177, 0.4944, 4.407, 0.3342, 26.96, 26.65, 257.6, 0.327, 1.933, 1.512, 24.84, 28.33, 21.44
2005, 3, 7.0, 1.43, 1.173, 8.39, 21.0, 25.17, 0.1843, 0.2628, 7.382e-05, 0.6076, 0.3529, 2.633, 0.1811, 26.0, 25.79, 179.4, 0.1749, 1.734, 1.417, 24.93, 28.45, 21.59
2006, 5, 8.2, 1.839, 1.398, 11.43, 41.0, 57.17, 0.2882, 0.2993, 9.614e-05, 0.9588, 0.5138, 4.223, 0.2855, 26.98, 26.53, 219.0, 0.3153, 2.077, 1.582, 25.09, 29.24, 22.02
2007, 7, 16.29, 1.64, 1.221, 19.98, 114.0, 139.9, 0.2278, 0.1979, 8.793e-05, 0.8158, 0.3815, 6.709, 0.2337, 25.99, 25.52, 409.2, 0.2776, 2.029, 1.465, 25.34, 29.08, 22.06
2008, 3, 10.0, 1.22, 1.077, 10.7, 30.0, 32.09, 0.09226, 0.1393, 4.13e-05, 0.3825, 0.2362, 2.322, 0.0932, 26.16, 26.0, 262.1, 0.1097, 1.467, 1.287, 24.59, 28.4, 21.39
2009, 1, 5.0, 1.512, 1.328, 6.639, 5.0, 6.639, 0.1393, 0.2939, 5.958e-05, 0.6599, 0.4785, 2.393, 0.1362, 28.78, 28.58, 142.9, 0.1519, 1.774, 1.563, 24.65, 28.78, 21.59
2010, 2, 10.0, 1.196, 0.9916, 10.11, 20.0, 20.21, 0.1171, 0.05591, 3.751e-05, 0.4148, 0.1985, 2.048, 0.1234, 26.14, 26.05, 261.7, 0.1264, 1.523, 1.251, 25.09, 28.36, 21.75
2011, 2, 12.5, 1.8, 1.403, 17.46, 25.0, 34.91, 0.258, 0.4004, 8.263e-05, 0.8511, 0.4924, 6.26, 0.2665, 27.37, 27.09, 343.4, 0.2926, 1.897, 1.549, 24.87, 28.81, 21.54
2012, 3, 14.33, 1.901, 1.249, 17.5, 43.0, 52.49, 0.2872, 0.2476, 0.0001109, 1.056, 0.4041, 5.687, 0.2877, 26.39, 25.71, 366.7, 0.3414, 2.252, 1.481, 24.83, 28.98, 21.36
2013, 0, nan, nan, nan, nan, 0.0, 0.0, nan, nan, nan, nan, nan, nan, nan, nan, nan, nan, nan, nan, nan, 24.61, 29.09, 21.69
2014, 5, 7.8, 1.611, 1.323, 10.32, 39.0, 51.6, 0.2231, 0.4308, 6.157e-05, 0.7475, 0.4632, 3.597, 0.2206, 26.64, 26.37, 203.1, 0.1974, 1.875, 1.544, 25.06, 28.76, 21.84
